; ------------------------------------------------
; Fit results:
; ============
; [1,1] amorf boor: Thickness [nm] = 91.25912
; amorf boor: N0 = 2.57600
; amorf boor: N1 = 3675.50000
; amorf boor: N2 = -5430.70000
; amorf boor: K0 = 0.02000
; amorf boor: K1 = 215.26800
; amorf boor: K2 = 453.97200
; ------------------------------------------------
;pattern=*****
;lines
;linecolor=008000
;linewidth=1
;marker=0
;markerborder=0
;markercolor=ff
; 
; Stylerecord: No. 1
;Marker[1]=0
;MarkerWidth[1]=0.0
;MarkerBorder[1]=black
;MarkerColor[1]=white
;lines[1]=1
;LineColor[1]=black
;LineWidth[1]=0.0
;Pattern[1]=*****--*--
; Stylerecord: No. 2
;Marker[2]=0
;MarkerWidth[2]=0.0
;MarkerBorder[2]=black
;MarkerColor[2]=white
;lines[2]=1
;LineColor[2]=black
;LineWidth[2]=0.0
;Pattern[2]=**
; Stylerecord: No. 3
;Marker[3]=0
;MarkerWidth[3]=0.0
;MarkerBorder[3]=black
;MarkerColor[3]=white
;lines[3]=1
;LineColor[3]=black
;LineWidth[3]=0.0
;Pattern[3]=*-
; Stylerecord: No. 4
;Marker[4]=0
;MarkerWidth[4]=0.0
;MarkerBorder[4]=black
;MarkerColor[4]=white
;lines[4]=1
;LineColor[4]=black
;LineWidth[4]=0.0
;Pattern[4]=**--
; Stylerecord: No. 5
;Marker[5]=0
;MarkerWidth[5]=0.0
;MarkerBorder[5]=black
;MarkerColor[5]=white
;lines[5]=1
;LineColor[5]=black
;LineWidth[5]=0.0
;Pattern[5]=***-*-
; Stylerecord: No. 6
;Marker[6]=0
;MarkerWidth[6]=0.0
;MarkerBorder[6]=black
;MarkerColor[6]=white
;lines[6]=1
;LineColor[6]=black
;LineWidth[6]=0.0
;Pattern[6]=**-*-
450.36774 29.92844 167.76469 21.82003 153.16161 13.41667 115.03723
451.22232 30.05352 168.34135 21.73562 152.97604 13.50791 115.33543
452.07690 30.84904 167.80421 21.46020 153.68271 13.12146 116.15094
452.93146 31.42085 168.57555 22.07929 153.75043 13.55757 114.48109
453.78604 30.89639 167.87596 21.47332 152.73547 14.03405 115.82540
454.64063 31.03837 167.04228 21.99342 153.70877 12.84204 117.57812
455.49521 30.59424 166.66693 22.22779 153.38934 13.53318 116.65308
456.34976 30.40985 166.75426 21.98656 152.46756 13.25512 117.41393
457.20435 30.81187 167.35240 22.33908 153.59982 14.14922 117.30727
458.05893 30.53547 166.85825 22.81681 152.62444 14.29596 114.96033
458.91348 30.08711 167.02156 22.44637 152.13307 14.18305 117.04025
459.76807 30.61537 166.10439 22.64584 152.47356 14.39099 116.66994
460.62265 31.46333 167.29652 22.67798 152.05997 14.62218 116.29479
461.47720 31.62532 166.44489 23.07144 152.35056 15.39713 114.85432
462.33179 30.40773 165.85832 23.23211 151.84343 15.27131 116.46094
463.18637 31.05622 165.70341 23.36908 152.12672 14.53698 118.46429
464.04092 30.94192 166.32600 23.28969 151.74014 15.52054 117.11265
464.89551 30.81811 166.43228 23.16265 151.95195 15.50526 116.70050
465.75009 31.29022 166.50348 23.23227 151.86069 15.13576 116.56756
466.60464 31.92691 166.40732 23.87313 151.48772 15.32855 117.95645
467.45923 31.23211 166.32712 23.36330 151.99896 15.76244 117.17470
468.31381 31.33564 165.70445 23.55977 151.35117 15.60281 119.28288
469.16837 31.32503 165.23500 23.80995 152.01526 16.01554 118.95312
470.02295 31.85729 165.28539 23.72393 150.69980 16.26237 116.91533
470.87753 31.69816 165.31323 23.91191 150.93231 17.03908 118.21909
471.73209 31.90798 165.05832 24.24405 152.04317 16.52160 118.31846
472.58667 31.82789 164.54201 24.43132 150.73943 16.87967 118.52036
473.44125 31.84808 163.51547 24.57019 151.30115 17.40157 116.99615
474.29581 31.57752 163.89348 24.34441 151.13734 16.94698 119.71991
475.15039 32.37827 164.48927 24.72803 151.41322 16.63184 121.87734
476.00497 32.56392 166.17706 24.66938 151.42998 17.36489 118.11752
476.85953 32.61450 165.50189 25.04262 151.14240 17.55742 119.76505
477.71411 32.11119 165.46858 25.15956 151.93840 16.91794 120.60381
478.56870 32.56800 165.83278 25.36101 151.47893 17.45495 121.02318
479.42325 32.70562 164.57364 25.03788 151.39622 17.31738 120.84665
480.27783 33.03888 165.14537 25.20008 151.11656 17.80886 120.86645
481.13242 32.41414 165.36273 25.60725 151.85220 17.96127 122.17529
481.98697 32.93295 165.20866 25.54075 150.06787 17.82079 122.41517
482.84155 33.38379 163.12437 25.43923 152.56813 18.48402 120.99696
483.69614 33.42479 164.10507 25.55704 152.05788 18.29837 121.35606
484.55069 32.89137 165.70592 25.70055 151.09065 18.55963 122.28977
485.40527 33.14944 165.09341 26.09662 152.00911 18.68272 121.76298
486.25986 33.55141 165.60324 25.97669 151.83110 18.84225 121.90171
487.11441 33.51075 163.86159 26.23100 151.83353 19.02155 123.36774
487.96899 33.06144 165.54979 25.97039 152.32542 18.24210 124.68176
488.82358 33.08386 165.38196 26.07053 151.73575 18.50948 124.43996
489.67813 32.88932 164.59308 26.38135 151.99034 19.12426 123.73407
490.53271 33.41844 164.67091 26.86410 152.16757 19.04345 124.68188
491.38730 33.72141 163.75224 27.05141 150.47437 18.39538 125.04602
492.24188 33.60510 163.03844 26.88650 151.51067 19.58190 124.31924
493.09644 32.94273 164.51294 26.92651 151.54361 19.24754 124.06845
493.95102 32.93235 164.55637 27.02192 152.87077 19.00532 126.29839
494.80560 33.18336 165.58315 26.88759 152.14601 19.94233 124.12417
495.66016 34.31279 164.47815 27.33297 152.51315 19.54240 125.76522
496.51474 33.80159 164.07335 26.95715 152.42822 20.02932 125.56766
497.36932 33.51811 165.48877 27.26005 152.95717 20.10004 126.75560
498.22388 33.81373 164.47865 27.67252 151.91154 19.67259 126.25232
499.07846 34.31814 165.25336 27.91689 153.56775 20.13881 127.03088
499.93304 34.06986 163.85416 27.51785 152.71809 19.64299 127.90533
500.78760 34.93871 165.09073 27.49555 153.46930 20.58161 127.12596
501.64218 34.75849 164.19846 27.79776 153.49965 20.28146 128.27589
502.49677 34.56187 163.03015 28.30535 153.42479 20.65997 128.13034
503.35132 34.48822 165.77582 28.10243 153.10373 19.10652 131.18967
504.20590 34.31018 164.85172 28.46404 154.13423 20.34344 128.36536
505.06049 34.97908 164.88806 28.30002 153.87505 21.31829 127.34233
505.91504 34.02961 166.47603 28.40442 154.28630 20.27992 129.98016
506.76962 34.89325 167.34180 28.49456 153.86362 21.06038 129.68323
507.62421 35.63178 164.63728 28.63083 153.25148 20.62587 129.99557
508.47876 36.03329 164.41304 28.65677 154.54619 20.97624 129.21513
509.33334 34.57848 166.11200 28.52944 154.38988 20.78874 132.53969
510.18793 34.81480 163.53349 28.64172 153.18956 21.00868 130.14815
511.04248 35.14054 165.24937 28.96687 154.72408 20.90185 129.79964
511.89706 33.78312 166.29112 28.19154 154.32455 21.00918 131.20267
512.75165 35.49132 164.85075 29.08131 153.67073 21.23809 132.91635
513.60620 34.67782 168.01930 28.94483 155.16907 21.89160 130.87488
514.46082 34.74195 166.78572 29.01041 155.62717 20.90281 134.53258
515.31537 35.67629 160.39899 28.87952 155.59601 21.48596 132.13460
516.16992 34.76204 167.30693 29.70616 155.46846 21.23795 135.58958
517.02454 36.93147 162.73280 29.55879 154.53741 21.38393 134.33601
517.87909 35.70724 167.27856 29.52581 155.40923 21.82684 134.57295
518.73364 35.45564 168.00691 29.11617 154.87964 22.29414 132.86002
519.58826 34.98357 164.51308 29.45784 156.32434 21.85738 134.09334
520.44281 35.27314 165.03444 29.68513 155.86855 21.93326 135.99846
521.29736 35.39765 167.08310 29.58321 155.37120 21.78602 134.86287
522.15198 35.49847 166.74507 29.70200 155.08128 22.19104 133.71175
523.00653 35.06772 166.47157 29.69268 155.83138 22.09112 136.39345
523.86108 35.33966 167.36833 29.43352 156.66457 21.94672 137.32590
524.71570 35.73793 166.37358 30.20643 156.20143 21.86641 138.24870
525.57025 35.67564 168.07880 30.04444 155.97820 21.67423 139.28543
526.42480 36.29271 166.00954 29.93164 156.55566 22.29155 136.47397
527.27942 36.38411 163.84586 30.29157 156.82468 22.31760 138.44276
528.13397 37.04454 167.41721 30.44614 157.51839 22.44755 137.38306
528.98853 35.85369 169.40285 30.63480 157.28026 22.53911 138.32419
529.84314 36.51414 168.01556 30.42392 156.82666 22.38117 138.77518
530.69769 35.95635 164.52226 30.15116 158.16855 23.28117 138.43694
531.55225 36.35249 167.70877 30.60476 157.63153 22.94429 138.08830
532.40686 36.36848 167.24797 30.50718 158.03505 23.25386 138.64680
533.26141 36.65522 165.94460 30.34980 157.27650 22.65551 141.06952
534.11597 36.74263 168.71019 30.47673 158.17628 22.74900 139.97005
534.97058 35.99334 167.01572 30.88586 158.58478 23.18901 140.09874
535.82513 36.84700 167.63846 30.93569 158.73109 22.83711 141.03030
536.67969 36.62277 167.91023 30.78438 159.01900 22.99188 140.69164
537.53430 36.31194 166.63628 30.67428 158.79446 23.40141 140.46732
538.38885 36.40606 169.16162 30.88874 159.46338 23.42215 140.66945
539.24341 36.39578 169.77025 31.04223 159.68613 23.40500 141.49088
540.09802 36.16798 168.22917 30.85709 159.59586 23.12279 142.18208
540.95258 36.82790 165.91557 30.90136 159.58183 23.18195 141.91371
541.80713 37.13534 167.16278 31.17402 159.57054 23.13010 142.55884
542.66174 37.27303 165.27118 31.29242 159.75415 23.82324 144.14574
543.51630 36.34975 168.42572 31.28273 160.44592 23.48697 142.29411
544.37085 36.69944 167.06326 31.53186 160.03067 23.49790 144.09196
545.22546 37.24233 169.01111 31.34264 160.24219 23.99682 143.55728
546.08002 35.90723 169.75278 31.63461 161.09027 23.81797 144.67833
546.95477 36.30080 166.78566 31.46669 160.15845 23.81206 144.37231
547.82953 36.44118 167.07800 31.66533 161.36031 24.07130 143.32074
548.70435 37.25332 168.86943 31.57273 160.90938 23.94189 145.20363
549.57910 36.59351 169.52129 31.47263 160.81792 23.94571 145.42218
550.45386 37.26324 170.01900 31.83640 161.44530 23.82600 146.24867
551.32861 37.48790 167.66605 31.87795 160.57251 24.03674 145.90173
552.20337 37.04300 168.14842 31.81758 161.97751 24.12769 146.51630
553.07813 36.74197 169.58922 31.88665 161.68129 23.77110 146.35854
553.95294 37.54621 167.45779 32.00300 161.57739 24.13828 147.21112
554.82770 36.77297 168.33014 31.77809 161.22639 23.92646 148.02115
555.70245 36.62099 168.88380 32.04925 161.88506 24.33969 147.20784
556.57721 37.10505 168.81609 32.33761 161.75806 24.31607 147.94890
557.45197 37.03194 168.05849 32.10355 162.15463 24.40912 147.74561
558.32678 36.97843 169.55611 31.70342 161.99004 24.02858 148.42947
559.20154 36.92629 169.27963 32.03958 162.45526 24.49061 148.07658
560.07629 38.42225 169.27177 32.20810 162.45041 24.73634 148.49754
560.95105 38.33879 168.75790 32.26078 163.09265 24.63378 148.68741
561.82581 37.21278 168.79185 32.44616 162.97778 24.17707 149.76726
562.70062 37.38931 170.09474 32.22889 163.26581 24.62298 150.82521
563.57538 35.86723 169.53067 32.16878 162.82776 24.66530 149.87910
564.45013 37.65152 170.02164 32.43934 163.13025 24.63991 150.86469
565.32489 38.07139 172.23999 32.42768 163.36667 24.89836 150.37306
566.19965 38.17614 170.91878 32.47650 163.47798 24.62559 150.61873
567.07440 37.27078 170.73393 32.17285 164.86513 24.70599 151.33994
567.94922 37.63811 170.43025 32.61187 164.27034 24.87744 151.89398
568.82397 37.49860 169.22775 32.37676 163.97467 25.02432 151.53165
569.69873 37.64481 169.21529 32.55870 164.43178 24.56579 152.50876
570.57349 38.36942 169.07855 32.75951 164.14003 25.01522 152.07072
571.44824 36.86059 169.93291 32.62550 164.79846 24.80066 152.73059
572.32306 37.72878 170.04771 32.71646 164.06300 24.98890 153.31598
573.19781 37.00352 169.10245 32.72672 164.91534 25.06119 153.07097
574.07257 36.96486 171.10039 32.93428 164.65968 25.17183 153.10692
574.94733 37.51811 171.20013 32.76614 164.94771 25.05213 153.97893
575.82208 37.59346 168.87840 32.91722 165.46887 25.09019 153.66885
576.69690 37.41169 171.84201 32.79770 165.72725 25.12605 153.95801
577.57166 37.44653 169.52840 32.86526 166.32649 24.86739 153.65271
578.44641 38.28629 170.65059 33.20257 165.55553 25.36969 154.57965
579.32117 36.83018 171.87543 32.97151 166.03778 25.42673 155.30656
580.19592 37.19851 171.02264 32.79626 166.08667 25.41945 155.74097
581.07068 37.97595 169.93533 33.16717 166.30063 25.23284 155.95827
581.94550 37.79978 171.34134 32.85817 166.61203 25.20133 155.73186
582.82025 37.43618 171.33076 33.08242 166.82762 25.33644 156.51688
583.69501 37.98312 171.34218 33.05686 166.98558 25.40969 156.74626
584.56976 37.89793 170.67020 33.22845 167.15169 25.47915 157.22408
585.44452 37.99924 170.72318 33.23684 166.89749 25.29187 157.30020
586.31934 38.09804 171.20132 33.17330 166.98132 25.46035 157.29671
587.19409 38.31708 171.17607 32.82635 167.31088 25.64741 158.00179
588.06885 37.63040 171.96193 33.40989 167.76385 25.50769 158.14325
588.94360 37.95296 172.15665 33.32595 167.82306 25.67303 157.39493
589.81836 37.66583 172.12241 33.23592 167.72607 25.66579 158.51382
590.69312 38.27467 172.93385 33.48802 167.99773 25.59151 158.53905
591.56793 37.96581 170.97096 32.92274 168.44772 25.73059 159.12584
592.44269 39.26199 170.70914 33.22562 169.21321 25.47416 159.71146
593.31744 37.93108 172.58096 33.33900 168.48848 25.74704 160.33577
594.19220 38.33455 171.22260 33.38284 168.33759 25.78302 160.01271
595.06696 37.18107 171.80247 33.42308 168.93048 25.66812 160.67570
595.94177 38.22577 172.88875 33.55373 168.83029 25.71742 160.75777
596.81653 37.88628 173.07782 33.56781 169.25810 25.95263 160.63515
597.69128 37.90930 172.85555 33.42065 168.73750 25.85780 160.96869
598.56604 39.19185 170.20467 33.34913 168.76186 25.94800 161.70091
599.44080 37.75872 173.03134 33.18632 169.37775 25.63654 161.68535
600.31561 38.15655 174.22305 33.54778 169.59650 25.94650 162.09283
601.19037 37.64743 173.29317 33.36707 170.42935 25.99837 162.30365
602.06512 38.16644 172.92146 33.54580 169.67267 25.95962 163.00809
602.93988 38.48768 172.05550 33.65574 169.84300 25.67536 163.51799
603.81464 39.06835 172.95157 33.58738 169.99420 25.99886 162.63304
604.68939 37.19131 171.92081 33.47802 170.37611 26.07943 163.21165
605.56421 38.08460 175.19037 33.74691 170.76656 26.00908 163.90166
606.43896 37.81483 176.02635 33.87943 169.99210 25.98509 164.35446
607.31372 38.50623 175.40288 33.89301 171.48320 25.96108 163.85039
608.18848 37.40251 173.32343 33.74796 171.27733 26.07399 164.12987
609.06323 37.79622 175.85640 33.86649 171.26532 25.97041 164.64857
609.93805 39.57904 173.40567 34.06839 171.20233 26.43298 164.93867
610.81281 38.09461 173.30417 33.85680 171.16895 26.21418 164.94060
611.68756 37.87976 173.88057 33.59799 171.54227 26.22567 165.59877
612.56232 38.46292 173.00458 33.89534 171.62503 26.36925 166.23167
613.43707 38.26345 175.00198 34.04022 171.76826 26.23407 166.18666
614.31189 38.48801 175.15074 33.70570 171.91873 25.98589 166.32283
615.18665 38.85305 174.49013 33.98217 171.85092 26.32399 166.62387
616.06140 37.92874 175.35356 33.59591 172.21837 25.89024 166.91602
616.93616 37.92731 174.96967 34.06428 172.71803 26.22823 167.93361
617.81091 37.80801 176.71815 34.08617 172.02022 26.21473 167.52287
618.68567 39.60686 175.09306 33.74496 172.56429 26.12277 168.17511
619.56049 38.34270 174.46390 33.91441 173.02092 26.16984 168.02179
620.43524 38.21451 177.75795 34.02056 173.13045 26.34106 168.27678
621.31000 38.49090 176.40288 33.99932 173.44287 26.40190 168.66156
622.18475 38.97311 175.07993 33.88205 172.96086 26.21085 168.75952
623.05951 38.81884 173.06758 33.93690 172.90309 26.25831 169.25684
623.93433 38.42366 175.55141 33.89747 172.86360 26.69866 169.64987
624.80908 37.74398 174.83995 34.12930 173.86214 26.80799 169.83510
625.68384 38.34947 175.16013 34.16242 173.63907 26.44461 169.88264
626.55859 38.21857 175.70821 34.18905 173.60921 26.02126 170.17288
627.43335 38.46255 176.10149 34.03344 173.88419 26.32796 170.25418
628.30811 38.40464 177.00439 33.90523 173.80423 26.52383 171.10492
629.18292 38.54110 176.81837 34.11193 174.58784 26.48495 170.47224
630.05768 38.32834 174.57097 34.09458 174.73042 26.37878 171.42496
630.93243 38.42340 175.02515 34.11781 175.08336 26.45689 171.85353
631.80719 38.52354 175.31404 34.03859 175.31587 26.66121 171.52138
632.68195 38.84515 176.46608 34.03273 175.10954 26.41256 172.61955
633.55676 38.92977 178.33809 34.16599 174.24989 26.55530 172.91280
634.43152 38.58438 176.76981 34.18503 175.24261 26.82783 172.59636
635.30627 39.89859 175.97008 34.44085 175.64594 26.41979 172.99982
636.18103 39.48816 176.55441 34.41693 175.63748 26.63202 173.34294
637.05579 39.91475 178.63589 34.47135 175.59647 26.77518 173.10228
637.93060 38.66074 175.91750 34.31685 175.25305 26.70715 173.61565
638.80536 37.82590 176.36653 33.99006 175.71391 26.84103 174.51430
639.68011 38.25932 177.95703 34.14485 176.44724 26.64284 174.64420
640.55487 38.20083 179.79218 34.20586 176.16309 26.87993 174.61481
641.42963 39.15850 176.88606 34.55563 176.54233 26.59043 174.83850
642.30438 38.37125 174.33546 34.07566 176.15593 26.41314 174.59344
643.17920 38.88639 177.07184 33.93135 176.09564 26.72979 175.79866
644.05396 38.63998 177.94109 34.32417 176.74591 26.69816 175.52312
644.92871 38.68166 174.59369 34.31763 177.01060 27.04285 176.15189
645.80347 38.96054 176.73497 34.40402 176.61819 26.62424 176.12581
646.67822 39.04625 177.93288 34.74715 177.41611 26.86459 176.67117
647.55304 38.18114 176.56363 34.49048 177.04987 26.71821 176.52962
648.42780 38.34430 178.61763 34.21987 177.17429 26.99185 177.32291
649.30255 38.65681 176.26205 34.23891 177.36356 26.62004 177.11671
650.17731 38.83107 177.78470 34.40853 177.49495 26.93925 177.79066
651.05206 38.69188 178.08945 34.14418 177.67555 26.73379 177.53534
651.92688 39.02934 178.67145 34.41002 178.09258 26.81166 177.96698
652.80164 39.32091 179.18779 34.37006 178.70650 26.89134 178.21533
653.67639 38.54951 177.47995 34.12024 177.57327 26.91555 178.24637
654.55115 37.88177 180.11908 34.33624 178.79146 26.81739 178.97105
655.42590 37.98709 176.32768 34.35408 178.41011 26.84504 179.48425
656.30066 39.18867 176.48517 34.31610 178.53467 26.93032 179.11787
657.17548 38.84937 176.17525 34.37807 178.72064 27.09165 178.55191
658.05023 38.25590 178.97763 34.42858 178.11877 27.02190 179.52150
658.92499 38.41014 178.31291 34.33382 178.97110 27.04200 179.81827
659.79974 38.09231 178.97069 34.43480 178.38966 26.97562 180.38980
660.67450 37.82212 176.43159 34.37339 179.28870 27.03321 179.99905
661.54932 38.07899 179.76387 34.50323 179.17390 27.07407 179.87206
662.42407 38.10001 178.79010 34.56601 179.51186 26.97822 181.02679
663.29883 37.76972 179.05519 34.65952 179.20721 26.66223 180.87961
664.17358 37.89035 180.76001 34.51911 179.38033 27.03966 181.38564
665.04834 37.65255 179.45270 34.15127 180.41202 27.04576 181.81326
665.92310 37.98018 179.27953 34.45346 179.73985 26.84851 181.64117
666.79791 38.63563 181.94885 34.25874 181.24947 26.88082 181.11499
667.67267 38.28990 179.03615 34.60188 180.53831 26.96062 182.70691
668.54742 38.67503 181.49942 34.25669 180.64531 26.76892 182.74110
669.42218 38.07780 179.96251 34.45511 181.21391 27.01422 182.14554
670.29694 39.46973 181.72871 34.59015 180.70055 27.07213 183.13245
671.17175 39.08587 178.76834 34.74141 181.28333 26.85017 183.51476
672.04651 39.03668 181.13310 34.57787 181.37479 26.89691 183.63620
672.92126 38.51576 182.83359 34.69995 181.59895 26.82347 183.18640
673.79602 38.49900 180.44135 34.48861 181.57539 26.88893 183.92262
674.67078 38.06748 181.83781 34.70781 181.54855 26.92667 184.41255
675.54559 37.88412 181.94563 34.43602 182.18921 27.11336 184.29257
676.42035 39.60283 179.87523 34.54802 181.30351 27.07500 184.50618
677.29510 38.57311 179.09799 34.56271 181.45715 27.05264 185.22040
678.16986 38.69609 181.06964 34.63575 182.26765 26.84303 185.32816
679.04462 39.03513 180.08496 34.65221 182.34477 27.01296 185.69507
679.91937 37.40267 179.39735 34.85797 182.30461 27.18089 185.74234
680.79419 37.75412 181.33589 34.49558 182.60493 27.06856 186.28836
681.66895 38.39058 184.87953 34.34482 181.89653 26.79503 186.40222
682.54370 38.83636 183.56769 34.41408 182.38670 26.91316 186.30489
683.41846 40.40547 178.98152 34.49533 182.90222 26.94648 187.07301
684.29321 38.50344 181.28752 34.13803 182.54774 26.90781 187.58089
685.16803 38.31465 180.29927 34.40882 182.47630 26.94349 186.66042
686.04279 39.16891 180.64801 34.35268 182.87421 26.98192 188.00359
686.91754 37.38056 181.65146 34.69453 183.34094 27.32795 188.83304
687.79230 38.32859 182.10913 34.43122 183.24783 27.14190 187.83694
688.66705 38.01258 183.02692 34.15710 183.51166 26.94783 188.70581
689.54187 38.94288 182.31612 34.29395 183.41252 26.87941 189.32204
690.41663 38.96821 183.54832 34.35123 183.25343 26.80943 188.88284
691.29138 39.86206 182.17929 34.54165 184.13640 26.95704 189.30357
692.16614 38.40073 180.72206 34.63901 183.61302 26.69258 189.41907
693.04089 37.76127 181.54671 34.43109 183.34825 26.84963 189.25899
693.91565 38.17696 183.48825 34.25580 183.89577 26.95215 190.19353
694.79047 38.00914 179.42583 34.60613 184.03238 26.86005 190.35266
695.66522 38.65514 182.70320 34.36945 184.88098 27.06021 189.92549
696.53998 39.21788 185.09564 34.48184 184.93732 26.90205 191.00638
697.42114 38.70930 183.11325 34.53548 184.76424 26.96364 190.70790
698.30237 39.64741 183.97975 34.34822 185.29163 26.93436 191.87489
699.18353 38.35993 182.15349 34.61710 185.55664 26.84572 191.16956
700.06470 38.48930 183.09676 34.52818 185.14532 26.86431 191.49751
700.94592 37.61544 181.86877 34.54791 185.85071 26.97217 192.57520
701.82709 39.21439 179.26381 33.78174 186.30934 26.80663 191.94264
702.70825 38.80159 182.81844 34.20029 184.98505 27.14535 192.79620
703.58948 38.64997 180.09219 34.71867 185.65625 26.69800 192.63451
704.47064 38.49076 182.62183 34.35186 185.51057 26.91366 192.69850
705.35181 37.08315 182.87109 34.22151 186.72429 26.95755 193.51448
706.23303 37.41104 182.06578 34.25104 186.63805 26.96914 193.67778
707.11420 38.60853 186.78163 34.13776 185.40672 26.77315 193.91615
707.99536 37.74261 182.01633 33.97554 186.55150 26.48029 194.00783
708.87659 40.05531 184.05254 34.01844 186.39537 26.86933 194.37584
709.75775 37.83809 185.05215 34.03726 186.80464 26.99462 193.70908
710.63892 38.27367 186.27632 34.28152 186.80884 26.79908 194.53201
711.52014 37.92685 182.92326 34.73431 187.23074 26.74566 194.33513
712.40131 38.84377 181.74637 34.14371 187.05382 26.68376 195.15550
713.28247 39.80039 181.60643 34.34344 186.32057 26.93421 195.20654
714.16370 37.71253 183.05031 34.42874 186.94147 26.50233 195.48485
715.04486 38.18015 184.07361 34.03303 187.09209 26.68983 196.41124
715.92603 38.23673 184.89354 34.06179 187.30092 26.80094 195.39581
716.80725 38.80499 184.73631 34.11837 187.76959 26.76841 195.86696
717.68842 38.82538 184.36754 34.16990 188.13148 26.76084 196.82869
718.56958 37.33996 184.94162 34.26178 188.16943 26.71577 196.71144
719.45081 38.81787 183.58496 34.30334 187.54391 26.60322 197.04015
720.33197 38.96749 187.85892 34.34237 187.94533 26.91667 197.15837
721.21313 38.35748 185.16837 33.85907 188.42497 26.59030 197.16508
722.09436 39.50826 185.26740 34.29066 188.83279 27.08095 197.93665
722.97552 38.52173 183.27675 34.12470 188.57887 26.88561 197.60826
723.85669 39.47895 185.25307 34.24508 189.04012 26.87890 197.13705
724.73792 38.12948 186.78979 34.18007 188.46300 26.74899 197.56477
725.61908 38.19690 183.88138 34.24294 189.28961 26.89038 198.90674
726.50024 37.60343 182.57162 34.27020 189.38524 26.78108 199.47205
727.38147 38.66316 183.20518 34.25961 188.37630 26.61888 198.78383
728.26263 38.39329 184.83820 34.12101 189.81354 26.95389 199.17432
729.14380 37.96755 184.92149 33.97522 188.52232 26.93650 199.54012
730.02502 39.63184 182.94824 34.31831 189.31989 26.70458 199.39027
730.90619 37.61150 181.94881 34.14270 189.08548 26.85684 199.38930
731.78735 39.11822 186.62961 33.96164 189.51164 26.58162 199.66412
732.66852 37.21836 185.59863 34.16104 190.16240 27.16717 200.48271
733.54974 38.85355 184.73521 33.68052 189.52760 26.65684 200.59328
734.43091 37.52546 186.27870 34.06791 190.18806 26.37065 201.01144
735.31207 38.42656 184.66953 34.46487 190.40454 26.69559 201.68016
736.19330 36.60326 187.48911 33.64336 190.04118 26.88429 200.83212
737.07446 38.41371 185.77875 34.29717 191.35101 26.53492 201.44354
737.95563 38.59380 185.01537 33.31024 190.14995 26.70145 202.13115
738.83685 37.21548 185.77811 34.11466 190.93555 26.40850 201.94189
739.71802 37.73697 185.73160 34.93813 190.24870 26.71822 202.07565
740.59918 37.94153 181.71350 33.69580 190.69585 26.81500 203.21756
741.48041 39.42027 185.52550 33.99077 190.37454 26.78798 202.84993
742.36157 39.10918 185.95103 34.52609 190.80644 26.37393 202.46654
743.24274 38.04696 185.39256 33.69386 191.07312 26.73452 202.79536
744.12396 36.76131 185.07152 33.44589 191.57643 26.44403 202.78720
745.00513 37.14951 184.81328 33.77511 192.16692 26.55701 203.32735
745.88629 37.34703 183.78331 34.26503 192.09006 26.59446 204.06004
746.76752 37.68066 187.69334 33.94925 191.53320 26.64855 204.36784
747.64868 38.05875 181.55153 33.76175 192.38683 26.38948 203.69435
748.52985 37.55589 186.78850 34.19502 192.51619 26.47518 204.72626
749.41107 39.27893 183.56604 33.97304 192.62622 26.68378 204.80106
750.29224 40.13736 192.93073 34.00803 192.29419 26.80648 204.34453
751.17340 37.80209 189.00496 33.82658 192.03134 26.58066 203.52815
752.05463 38.27826 190.14455 33.41387 193.29771 26.31177 204.54932
752.93579 38.38297 189.17583 33.74071 192.76341 26.58753 205.39774
753.81696 36.10653 180.18620 33.73334 192.60329 26.23469 204.46706
754.69818 40.74438 187.94160 33.68476 192.79414 26.51508 204.57426
755.57935 41.77732 185.94463 33.35501 192.64441 26.15051 204.87541
756.46051 36.49605 189.80940 33.87100 192.03409 26.40071 205.79582
757.34174 38.53220 188.07581 33.77771 192.84789 26.47847 206.54242
758.22290 39.56878 186.97620 33.80237 193.69162 26.30428 207.12497
759.10406 37.90079 188.87630 33.52332 192.88345 26.32440 206.50403
759.98529 37.18559 189.04205 33.84494 193.10396 26.34033 206.58618
760.86646 36.95658 190.65508 34.37679 193.02776 26.40886 206.83711
761.74762 38.25822 193.66179 33.99078 194.05186 26.12528 206.84857
762.62885 38.10657 192.27908 33.55643 193.89615 26.66395 207.37431
763.51001 38.16726 179.38397 34.15659 193.63289 26.39333 207.43004
764.36749 37.69452 189.06111 32.91335 194.25920 26.38890 208.45477
765.22504 40.15178 187.56932 33.23057 193.40489 26.43147 209.20934
766.08252 37.40773 195.75810 33.63439 194.43173 26.30935 208.18240
766.94000 37.41262 188.47144 33.15351 193.53357 26.31491 209.34492
767.79749 37.38482 192.83133 33.84634 194.42819 26.69243 208.92493
768.65503 39.19911 186.00964 33.88245 195.04097 26.42312 208.71548
769.51251 39.66437 191.61153 33.56034 195.29730 25.76241 209.18854
770.37000 39.46145 191.94733 33.47932 192.63914 26.56562 209.63499
771.22754 39.64627 191.07768 33.27670 195.78369 26.08518 210.02431
772.08502 38.38102 194.42677 33.51954 194.20700 26.60289 209.80089
772.94250 39.03308 191.36510 33.66642 194.03484 26.23349 211.18991
773.79999 37.66222 191.46274 32.91405 195.04112 26.90299 211.22411
774.65753 39.97777 185.29738 33.08124 195.09857 26.84609 210.30493
775.51501 39.41766 189.61571 32.51447 195.65506 26.52371 211.42505
776.37250 37.49363 188.29115 34.22119 194.60309 26.08916 210.62006
777.23004 36.75319 189.53658 33.98856 195.99170 26.86397 210.54173
778.08752 37.45341 189.64513 33.29379 195.14558 26.17479 211.99446
778.94501 37.51192 197.80334 33.66686 193.50398 26.57818 210.69817
779.80249 36.74016 196.85513 33.39435 195.56160 26.14254 211.93436
780.66003 34.05336 185.49820 32.49605 196.60701 25.75433 211.74373
781.51752 40.99616 192.67488 32.83103 196.21562 26.38457 212.61177
782.37500 38.20008 196.73265 33.35506 195.18219 26.27870 211.47525
783.23254 38.29030 185.72827 33.32136 196.01054 26.49800 212.66473
784.09003 35.59790 194.78300 33.56690 196.60141 26.15995 214.85928
784.94751 38.31110 181.56387 32.95608 197.98706 26.05204 213.43285
785.80499 38.00990 187.10510 33.58867 196.00182 26.44687 213.31061
786.66254 38.08746 199.31607 33.15383 196.57866 26.22107 212.74332
787.52002 39.19954 195.07368 33.40182 197.79373 26.33386 213.15237
788.37750 38.58784 187.92685 32.69673 194.75002 25.96490 216.50320
789.23505 38.07697 188.62204 32.23010 197.27309 25.91152 212.84006
790.09253 42.21208 194.79204 32.94570 195.64230 26.80035 214.53046
790.95001 38.70987 190.20554 33.33952 198.21446 26.33978 214.86288
791.80750 36.89114 186.51740 32.41553 196.03986 25.92184 213.52048
792.66504 37.24662 190.51317 32.66148 196.86549 26.34868 214.17880
793.52252 35.68154 189.04572 33.26908 198.68880 25.71729 215.25423
794.38000 39.52848 200.76866 33.43572 198.58530 26.41614 214.21333
795.23755 36.50113 188.86121 33.30075 197.08855 26.09760 217.38879
796.09503 38.14321 190.24762 33.79458 200.98022 25.89050 214.77434
796.95251 35.81464 185.15991 33.72026 197.95161 26.14406 215.97316
797.81000 38.49533 185.33820 33.69925 200.04204 26.88391 216.45975
798.66754 38.60247 195.85110 33.37780 198.60568 26.01820 216.50484
799.52502 37.09059 184.18745 33.57868 200.24992 26.54560 217.42950
;pattern=*****
;lines
;linecolor=000080
;linewidth=1
;marker=0
;markerborder=0
;markercolor=ff
; 
; Stylerecord: No. 1
;Marker[1]=0
;MarkerWidth[1]=0.0
;MarkerBorder[1]=black
;MarkerColor[1]=white
;lines[1]=1
;LineColor[1]=black
;LineWidth[1]=0.0
;Pattern[1]=*****--*--
; Stylerecord: No. 2
;Marker[2]=0
;MarkerWidth[2]=0.0
;MarkerBorder[2]=black
;MarkerColor[2]=white
;lines[2]=1
;LineColor[2]=black
;LineWidth[2]=0.0
;Pattern[2]=**
; Stylerecord: No. 3
;Marker[3]=0
;MarkerWidth[3]=0.0
;MarkerBorder[3]=black
;MarkerColor[3]=white
;lines[3]=1
;LineColor[3]=black
;LineWidth[3]=0.0
;Pattern[3]=*-
; Stylerecord: No. 4
;Marker[4]=0
;MarkerWidth[4]=0.0
;MarkerBorder[4]=black
;MarkerColor[4]=white
;lines[4]=1
;LineColor[4]=black
;LineWidth[4]=0.0
;Pattern[4]=**--
; Stylerecord: No. 5
;Marker[5]=0
;MarkerWidth[5]=0.0
;MarkerBorder[5]=black
;MarkerColor[5]=white
;lines[5]=1
;LineColor[5]=black
;LineWidth[5]=0.0
;Pattern[5]=***-*-
; Stylerecord: No. 6
;Marker[6]=0
;MarkerWidth[6]=0.0
;MarkerBorder[6]=black
;MarkerColor[6]=white
;lines[6]=1
;LineColor[6]=black
;LineWidth[6]=0.0
;Pattern[6]=**-*-
456.34976 29.62231 165.15041 21.86026 151.50446 14.07492 116.96895
464.04092 30.07720 164.62545 22.55380 151.03668 14.89895 118.07307
471.73209 30.64925 164.16910 23.39933 150.76628 15.86122 119.63737
479.42325 31.25184 163.98726 24.25529 150.93904 16.77098 121.66972
487.11441 31.89080 163.94237 25.15285 151.32508 17.71825 123.91370
494.80560 32.56298 164.01837 26.09340 151.89037 18.71874 126.32480
502.49677 33.22271 164.32819 27.00268 152.78752 19.66160 129.04262
510.18793 33.83656 164.80345 27.84276 153.89220 20.52428 131.87163
517.87909 34.38948 165.37846 28.59814 155.10042 21.30086 134.67705
525.57025 34.88775 166.02445 29.27908 156.37864 22.00400 137.45486
533.26141 35.33575 166.71354 29.89272 157.69112 22.64326 140.18101
540.95258 35.73799 167.40146 30.44757 158.97299 23.23398 142.77455
548.70435 36.10607 168.08812 30.95922 160.23252 23.79162 145.27314
556.57721 36.44855 168.78599 31.43851 161.49589 24.32494 147.73596
564.45013 36.77013 169.50015 31.89141 162.77503 24.83895 150.19253
572.32306 37.08531 170.25603 32.33834 164.11772 25.35746 152.74002
580.19592 37.37967 171.05321 32.75687 165.52027 25.84851 155.36245
588.06885 37.62233 171.87218 33.09896 166.94457 26.24287 157.97775
595.94177 37.81382 172.69634 33.36498 168.36599 26.53947 160.55394
603.81464 37.98396 173.51242 33.60179 169.77059 26.80721 163.09159
611.68756 38.13964 174.31857 33.81986 171.15702 27.06063 165.59284
619.56049 38.27589 175.12289 34.01046 172.53832 27.28443 168.07818
627.43335 38.39086 175.93417 34.16986 173.92946 27.47111 170.57443
635.30627 38.48448 176.74402 34.29790 175.31686 27.62022 173.05926
643.17920 38.55719 177.54809 34.39503 176.69364 27.73188 175.52202
651.05206 38.60897 178.34440 34.46096 178.05683 27.80487 177.95865
658.92499 38.63920 179.13225 34.49438 179.40551 27.83648 180.36866
666.79791 38.64527 179.91381 34.49075 180.74351 27.81897 182.76007
674.67078 38.62880 180.68521 34.45255 182.06479 27.75601 185.12405
682.54370 38.59649 181.43645 34.39075 183.35308 27.66456 187.43306
690.41663 38.55144 182.16313 34.31026 184.60110 27.55184 189.67448
698.30237 38.49487 182.86478 34.21294 185.80808 27.42028 191.84721
706.23303 38.42588 183.54404 34.09717 186.97857 27.26699 193.95995
714.16370 38.34288 184.19401 33.96025 188.10072 27.08709 195.99270
722.09436 38.24775 184.81345 33.80513 189.17253 26.88467 197.94255
730.02502 38.14879 185.40536 33.64525 190.19926 26.68034 199.81698
737.95563 38.05059 185.96689 33.48799 191.17582 26.48466 201.60493
745.88629 37.95544 186.50195 33.33693 192.10864 26.30274 203.31624
753.81696 37.86588 187.01549 33.19615 193.00596 26.14051 204.96337
761.74762 37.78347 187.51771 33.06815 193.88505 26.00218 206.57486
769.51251 37.71550 188.00491 32.96465 194.73865 25.90447 208.13177
777.23004 37.66017 188.48965 32.88281 195.58821 25.84390 209.67097
784.94751 37.60945 188.97977 32.80965 196.44743 25.80149 211.21990
792.66504 37.56266 189.48326 32.74421 197.33001 25.77689 212.80141
