; ------------------------------------------------
; Fit results:
; ============
; [1,1] amorphous boron: Thickness [nm] = 82.54093
; amorphous boron: N0 = 2.51900
; amorphous boron: N1 = 5982.40000
; amorphous boron: N2 = -8881.40000
; amorphous boron: K0 = -0.42700
; amorphous boron: K1 = 4236.06100
; amorphous boron: K2 = -7917.63300
; ------------------------------------------------
;pattern=*****
;lines
;linecolor=008000
;linewidth=1
;marker=0
;markerborder=0
;markercolor=ff
; 
; Stylerecord: No. 1
;Marker[1]=0
;MarkerWidth[1]=0.0
;MarkerBorder[1]=black
;MarkerColor[1]=white
;lines[1]=1
;LineColor[1]=black
;LineWidth[1]=0.0
;Pattern[1]=*****--*--
; Stylerecord: No. 2
;Marker[2]=0
;MarkerWidth[2]=0.0
;MarkerBorder[2]=black
;MarkerColor[2]=white
;lines[2]=1
;LineColor[2]=black
;LineWidth[2]=0.0
;Pattern[2]=**
; Stylerecord: No. 3
;Marker[3]=0
;MarkerWidth[3]=0.0
;MarkerBorder[3]=black
;MarkerColor[3]=white
;lines[3]=1
;LineColor[3]=black
;LineWidth[3]=0.0
;Pattern[3]=*-
; Stylerecord: No. 4
;Marker[4]=0
;MarkerWidth[4]=0.0
;MarkerBorder[4]=black
;MarkerColor[4]=white
;lines[4]=1
;LineColor[4]=black
;LineWidth[4]=0.0
;Pattern[4]=**--
; Stylerecord: No. 5
;Marker[5]=0
;MarkerWidth[5]=0.0
;MarkerBorder[5]=black
;MarkerColor[5]=white
;lines[5]=1
;LineColor[5]=black
;LineWidth[5]=0.0
;Pattern[5]=***-*-
; Stylerecord: No. 6
;Marker[6]=0
;MarkerWidth[6]=0.0
;MarkerBorder[6]=black
;MarkerColor[6]=white
;lines[6]=1
;LineColor[6]=black
;LineWidth[6]=0.0
;Pattern[6]=**-*-
450.36774 29.64256 169.05902 20.64653 155.61057 12.11404 113.17191
451.22232 29.96167 170.29515 20.57958 156.23944 12.56203 112.45074
452.07690 30.21201 168.72269 20.99097 154.52200 12.81153 113.21400
452.93146 29.81814 167.84837 21.04562 155.96201 11.78392 114.45380
453.78604 29.85788 168.59700 21.09245 155.47282 12.69972 112.80476
454.64063 30.17608 166.97208 21.30625 153.85699 13.69718 113.06078
455.49521 30.01012 167.92223 21.15550 154.81506 13.38780 113.82010
456.34976 30.78060 167.50313 21.45473 153.62640 12.94803 113.42858
457.20435 29.91183 167.43396 21.27710 153.05774 13.01378 115.26382
458.05893 30.35518 168.02745 21.44543 153.95021 13.72811 113.39562
458.91348 30.21965 168.24936 21.62559 153.79666 13.05325 114.30764
459.76807 30.37614 166.89029 21.93200 152.92134 13.75116 114.49315
460.62265 29.95489 167.64616 21.60000 153.35577 13.72937 114.71918
461.47720 30.37861 168.17114 21.89331 153.03198 13.51725 115.94770
462.33179 30.69460 166.69296 22.21279 152.17882 13.36541 114.90089
463.18637 30.45296 167.22011 22.39859 152.40506 14.46558 114.18753
464.04092 30.25809 166.76445 22.04431 152.17119 14.27015 114.68149
464.89551 30.59150 166.33655 22.48742 151.62251 14.36667 114.42059
465.75009 31.15525 166.86668 22.34932 151.75159 14.11274 116.00430
466.60464 30.88397 166.57819 22.50155 151.95030 14.52571 116.50781
467.45923 31.22699 165.11160 22.40928 151.86746 14.86767 115.33609
468.31381 31.31295 166.85477 22.83140 150.75735 15.59843 114.20388
469.16837 31.30204 165.05742 22.88003 150.67427 14.95258 117.72272
470.02295 30.91197 166.28194 22.79880 151.39934 15.98877 113.60130
470.87753 30.70450 166.05757 23.10764 150.86446 15.43682 116.07906
471.73209 31.52468 165.20140 23.21774 150.94189 15.55753 116.77120
472.58667 30.94889 166.18996 23.43116 151.04730 15.32646 116.66515
473.44125 31.00953 165.26299 23.06456 151.89670 15.96133 116.25418
474.29581 31.51443 166.57791 23.76123 150.78490 16.64125 115.89268
475.15039 30.78685 164.94797 23.45303 150.12120 16.23207 115.68375
476.00497 31.17346 165.10571 24.09025 150.34924 16.44877 117.30864
476.85953 31.35146 165.41011 23.93042 150.61711 16.33629 117.35906
477.71411 31.28610 164.65649 24.22841 150.61604 16.17387 118.10170
478.56870 32.23632 165.20787 24.23565 150.92580 16.31157 117.98017
479.42325 31.81750 165.26193 24.20025 151.24831 16.71529 118.88901
480.27783 31.91976 165.41309 24.54026 151.05602 16.80186 118.22839
481.13242 31.21742 165.47160 24.50588 151.21092 16.49432 120.15965
481.98697 31.83994 164.15829 24.79558 150.65511 16.95422 118.91183
482.84155 32.30958 164.18811 24.84405 150.32411 16.97606 119.10765
483.69614 32.38492 163.41280 24.92199 150.36539 17.35707 118.61784
484.55069 32.60046 164.82463 25.08832 150.85835 17.38863 119.47422
485.40527 32.46885 164.14220 25.07258 150.45753 17.37228 119.98519
486.25986 32.51101 163.59471 25.21683 151.37401 17.30246 118.93181
487.11441 33.37162 163.51878 25.11225 150.85535 17.83174 120.59842
487.96899 32.00900 166.04140 25.31843 150.94733 17.65588 119.67716
488.82358 32.43090 165.46878 25.28936 151.15546 18.23806 120.08381
489.67813 32.99002 164.35674 25.81970 151.25963 18.37783 120.48494
490.53271 33.34621 165.14082 25.80978 150.32886 18.52422 120.87848
491.38730 32.78957 163.59399 25.95450 150.38298 18.89722 119.91158
492.24188 32.54795 164.99133 25.74136 150.96732 18.24861 121.84833
493.09644 32.45514 164.05437 26.05137 151.02206 18.15804 121.90750
493.95102 32.88355 163.85680 26.30971 151.44482 18.45106 122.16399
494.80560 33.25538 163.83369 26.33908 152.31686 18.84129 122.43126
495.66016 32.82944 164.59297 26.22934 151.04431 19.14302 122.62238
496.51474 32.91517 166.74609 26.58037 151.41919 18.56244 122.73309
497.36932 33.27461 164.49924 26.47997 150.60506 19.04741 123.03373
498.22388 32.72389 165.25949 26.64636 151.73198 18.26826 123.41497
499.07846 33.81591 164.68806 26.68430 151.79517 19.02852 125.13786
499.93304 33.59698 163.77489 26.52012 151.56770 19.51632 123.73785
500.78760 33.83689 164.88106 27.19308 151.30051 19.68046 123.22085
501.64218 33.66765 164.91911 27.06621 151.54601 19.84522 124.02780
502.49677 33.70913 164.44612 27.18864 151.65733 19.56751 124.94855
503.35132 33.86524 166.12292 26.70053 152.19795 19.45918 127.12587
504.20590 34.39404 164.32286 27.52837 152.13977 19.68276 125.69194
505.06049 34.11120 163.77193 27.40691 153.37102 20.27529 125.05717
505.91504 33.53848 164.16771 27.37782 152.35481 19.68872 126.93897
506.76962 33.35223 164.59767 27.68336 151.59792 19.57756 127.48560
507.62421 34.75023 164.86017 27.44747 152.10956 19.40419 126.65674
508.47876 34.49163 165.45786 28.16966 152.20990 19.10276 127.61525
509.33334 34.21007 165.99907 28.06999 153.41623 20.56227 127.24402
510.18793 33.67768 164.87448 28.40697 153.40804 20.95357 126.70330
511.04248 33.98537 165.24747 28.29084 153.75221 20.45596 128.84996
511.89706 34.58493 164.23320 28.24861 152.91646 20.31032 129.27484
512.75165 34.64886 165.76241 28.19089 152.75249 20.73916 127.89318
513.60620 34.05064 166.15068 28.19964 152.93770 20.54189 128.71983
514.46082 34.93937 164.41638 28.18925 153.08566 21.70935 128.59286
515.31537 34.88329 165.96809 28.05019 153.61461 21.05406 129.21286
516.16992 35.08166 167.02478 28.22463 154.26453 20.66121 131.16092
517.02454 33.96928 164.46790 28.69741 153.94188 21.34325 129.34042
517.87909 35.29421 164.20166 28.47268 154.32613 21.22003 129.79773
518.73364 35.45457 167.35815 28.76924 154.60062 20.46801 130.52127
519.58826 35.41629 166.15559 28.82678 153.19693 21.63244 131.57666
520.44281 35.19321 166.40929 28.89940 154.46198 21.29933 131.76648
521.29736 35.44997 166.83269 28.87593 154.81096 21.72246 131.47597
522.15198 35.01893 166.04915 29.57691 155.44696 21.04164 134.97812
523.00653 35.87709 165.63211 29.39873 154.22639 21.85682 132.48959
523.86108 35.14816 166.16508 30.15704 155.27988 20.84879 134.03743
524.71570 35.18974 166.80435 29.41583 155.45267 21.44534 133.14110
525.57025 35.51410 167.06636 29.39101 155.72105 20.95993 134.43285
526.42480 35.10697 166.02153 29.17754 154.14572 21.60352 133.49387
527.27942 34.99526 166.16672 29.58005 156.08325 21.43099 134.68317
528.13397 35.37712 165.83653 29.73413 154.85225 22.64010 133.30824
528.98853 35.72188 167.13440 29.66880 155.15359 22.51295 134.86990
529.84314 35.87363 166.86887 29.99554 155.47862 21.88510 136.45027
530.69769 35.77471 165.63435 29.90099 155.90567 21.99266 134.85292
531.55225 36.45297 166.52377 29.68117 155.77774 22.14604 135.78168
532.40686 36.23829 166.12206 30.31857 155.62173 21.83094 137.71082
533.26141 35.95597 165.93301 30.00371 156.07907 22.58135 136.22333
534.11597 35.15903 167.15463 30.25037 156.86462 22.64307 136.30342
534.97058 35.91024 166.93703 30.15198 157.38104 22.63738 136.62541
535.82513 36.21463 167.71408 30.30519 157.03036 22.43863 137.67017
536.67969 36.05011 167.94269 30.27845 157.09315 22.63651 138.89162
537.53430 36.29200 168.24902 30.50348 157.36903 22.66796 137.92896
538.38885 36.13200 167.97333 30.56594 157.54842 22.60187 138.67197
539.24341 36.33735 167.09412 30.75166 157.57996 22.60796 138.73010
540.09802 36.77589 167.68567 30.60732 157.51053 22.97687 138.52977
540.95258 36.89496 166.84874 30.45953 158.08365 23.20674 138.27255
541.80713 36.19372 167.19635 30.70100 158.09088 23.17950 139.50739
542.66174 36.82322 167.67877 30.57449 158.53868 22.69334 139.41711
543.51630 36.10613 167.95795 30.87739 158.67647 23.14245 140.33749
544.37085 36.61988 167.14417 30.79513 158.55847 23.20134 140.22246
545.22546 37.01603 166.89729 30.96324 158.36380 23.19977 141.62669
546.08002 36.54273 168.65491 31.37528 159.20634 23.19901 140.74443
546.95477 37.00788 168.22287 30.98397 158.88010 23.19909 141.14113
547.82953 36.21201 167.55307 31.03986 158.94481 23.06433 141.55482
548.70435 36.37898 168.16806 31.21539 159.18785 23.51123 141.83197
549.57910 36.92768 168.15462 31.31472 159.25076 23.34756 142.42188
550.45386 36.71296 167.76921 31.21711 159.44960 23.69531 142.36824
551.32861 36.53997 167.05174 31.67764 159.21452 23.27502 142.51581
552.20337 36.41009 168.51913 31.29158 159.91528 23.49994 143.03850
553.07813 36.69837 169.12856 31.38101 159.76620 23.82431 143.34637
553.95294 37.12542 168.38086 31.64977 160.46283 23.28037 144.41252
554.82770 36.70799 169.93079 31.35716 160.32805 23.92677 143.95313
555.70245 36.70972 169.40813 31.40326 160.05060 23.76016 144.46660
556.57721 36.35396 169.87079 31.59292 160.46022 23.64580 144.89436
557.45197 37.07606 167.04018 31.72011 160.62451 24.06174 144.91502
558.32678 36.65857 168.24757 31.75811 160.73268 23.93990 143.73701
559.20154 37.26417 169.82118 31.68509 160.68449 24.07493 144.94875
560.07629 37.06475 168.38718 31.90991 161.05325 23.89021 146.69443
560.95105 37.49548 169.51587 31.77961 161.61897 23.97173 145.94247
561.82581 37.00883 168.06750 31.66914 161.92157 23.84490 146.49191
562.70062 37.13965 169.04973 31.92171 161.27180 24.24092 146.52219
563.57538 37.84109 168.89607 32.17626 161.38504 24.12845 146.87555
564.45013 37.51273 168.79631 32.15261 161.87270 24.47338 147.24078
565.32489 37.19616 169.82744 31.78189 162.28043 24.29130 148.29431
566.19965 37.43345 169.49654 31.92711 162.34164 24.21787 147.86143
567.07440 37.11973 168.43694 32.05202 162.72647 24.43484 148.02876
567.94922 37.63432 169.90515 32.06058 162.50453 24.47783 148.07098
568.82397 37.24117 169.35352 32.04306 162.65808 24.50160 148.70328
569.69873 37.88509 169.31129 32.26453 163.18970 24.72171 148.77844
570.57349 37.63382 170.54530 32.34166 163.05931 24.46483 149.44102
571.44824 37.67464 170.39508 32.24655 163.18573 24.61860 149.94514
572.32306 37.90056 169.86099 32.38019 163.58916 24.42236 150.22153
573.19781 37.44053 170.20760 32.51218 163.25577 24.55817 150.65112
574.07257 37.57770 170.34966 32.47441 164.20572 24.66218 150.88396
574.94733 37.69566 170.46469 32.64548 163.96977 24.60751 151.15932
575.82208 37.63410 169.61624 32.74726 163.79811 24.81221 151.45078
576.69690 37.06724 170.70828 32.66679 163.97740 24.95696 151.45033
577.57166 37.82374 170.70354 32.40262 164.39394 24.60962 151.53818
578.44641 37.85121 171.30954 32.42189 164.32722 24.73809 151.72041
579.32117 37.66475 169.98796 32.63618 164.74904 24.91980 151.99727
580.19592 38.07215 170.84668 32.74644 164.75255 24.98050 152.73293
581.07068 37.72723 170.95053 32.77285 165.12065 24.85281 152.64197
581.94550 37.84877 170.95923 32.66256 165.16676 24.82623 152.96684
582.82025 38.04430 171.11263 32.75571 165.62395 25.03120 153.34309
583.69501 38.01440 171.16139 32.65617 165.08154 24.95414 153.36485
584.56976 38.20346 171.20798 32.77019 165.12070 25.18975 153.98738
585.44452 38.31250 171.02890 33.00636 165.79239 25.26899 154.44888
586.31934 38.59568 170.99086 33.13642 165.40671 25.21547 154.88210
587.19409 38.25061 171.15651 32.80765 165.50807 25.19611 155.30133
588.06885 38.28185 171.32822 32.67752 166.33696 25.22318 154.94218
588.94360 38.07570 170.59346 32.81303 165.89494 25.44951 155.49673
589.81836 38.11605 171.14618 32.88405 166.13789 25.27756 155.88420
590.69312 37.73624 172.38757 32.99947 167.07784 25.10308 156.15370
591.56793 38.04100 171.89435 32.93397 166.67122 25.46892 156.70387
592.44269 37.87391 171.45140 33.12383 166.78952 25.25118 156.87367
593.31744 38.64888 172.74171 33.15020 166.97459 25.43817 157.17303
594.19220 38.42639 171.65736 33.31447 167.30818 25.40099 157.74733
595.06696 38.44308 172.61703 33.19941 167.23637 25.35722 157.29948
595.94177 37.99026 172.36563 33.35281 167.37186 25.31994 157.87872
596.81653 38.41692 171.57979 33.37926 167.98575 25.57947 158.25296
597.69128 38.49840 172.01947 33.44993 168.06877 25.51636 157.99199
598.56604 38.36652 172.42503 33.23417 167.81465 25.58750 159.03319
599.44080 37.72785 172.25047 33.56750 167.55145 25.35606 159.41768
600.31561 38.23902 172.01654 33.25129 168.24414 25.59417 159.14856
601.19037 38.64212 172.62994 33.45964 168.31953 25.60349 159.72491
602.06512 37.62120 172.99854 33.15538 168.29919 25.66120 159.72519
602.93988 38.08812 172.04623 33.60056 168.87720 25.53493 160.06358
603.81464 38.43904 173.02385 33.55388 168.83603 25.66089 161.00029
604.68939 38.27071 172.20146 33.88883 168.77238 25.82204 160.40535
605.56421 38.87157 174.45667 33.40508 169.46901 25.81362 160.73494
606.43896 38.66575 171.72104 33.24088 169.54205 25.88068 160.95943
607.31372 38.44613 173.34033 33.20340 169.35451 25.97906 161.60329
608.18848 38.43948 173.48276 33.63566 168.84367 25.87141 161.87283
609.06323 38.24279 173.48189 33.47451 169.68872 25.65828 162.08748
609.93805 38.68852 172.79408 33.66188 169.77574 25.81803 162.13261
610.81281 38.80986 172.76030 33.53984 170.18239 26.20208 163.07318
611.68756 38.25810 172.40044 33.54838 170.38976 25.75801 162.92577
612.56232 38.51481 174.03938 33.62539 170.37422 25.92171 163.38095
613.43707 38.73198 174.54332 33.58357 171.06485 25.73724 163.43135
614.31189 38.07183 174.52261 33.79016 170.45964 26.04398 163.70502
615.18665 39.16944 173.13550 33.75984 170.47116 25.84444 163.79031
616.06140 38.12749 174.57272 33.88023 170.31993 26.14245 164.39977
616.93616 38.27902 174.76019 33.78224 171.05690 25.98104 164.47226
617.81091 38.28869 174.24005 33.64884 171.34500 26.10902 164.90024
618.68567 38.73623 174.45528 33.67075 170.80775 25.95868 165.09866
619.56049 38.90662 175.17229 33.85151 171.48538 26.17166 165.23901
620.43524 38.42884 174.43518 33.77220 171.35699 26.18489 166.37132
621.31000 38.50512 173.94849 33.90738 171.49284 26.08291 166.11450
622.18475 38.84513 175.14926 34.01620 172.05029 26.26813 166.90750
623.05951 38.58597 174.69312 34.05893 172.11914 26.12537 166.72791
623.93433 38.63558 174.45857 34.01334 172.58170 26.34086 167.37418
624.80908 38.38528 174.73845 33.83174 172.71164 26.34361 166.95847
625.68384 38.78887 175.48517 33.95414 172.91849 26.13093 167.26933
626.55859 37.90200 173.87508 34.12255 173.08243 26.33383 167.73566
627.43335 38.25487 174.91620 34.04701 172.28825 26.22542 168.08800
628.30811 38.24154 176.03462 33.88982 172.71446 26.38516 168.44208
629.18292 39.08831 175.62508 34.11638 173.01868 26.47912 168.51836
630.05768 38.69350 176.80310 34.10416 173.28978 26.40294 168.66420
630.93243 38.61002 175.02029 34.06963 173.63678 26.23105 168.88617
631.80719 38.70649 175.62115 33.88057 173.56244 26.42949 169.20171
632.68195 38.89759 175.17802 34.11353 173.34216 26.25123 169.25125
633.55676 38.66047 175.92110 34.01054 173.34622 26.43569 170.18826
634.43152 39.21068 176.71266 34.04420 173.84227 26.41766 170.54720
635.30627 39.32832 177.13669 34.13565 173.82588 26.42967 170.71547
636.18103 38.99530 175.76318 34.11717 174.22264 26.52578 170.72861
637.05579 38.67606 176.66252 33.98127 174.24300 26.32833 171.05603
637.93060 38.42287 177.60744 34.21893 174.38867 26.38697 170.80838
638.80536 39.07658 176.02773 33.96931 174.68750 26.41626 171.18163
639.68011 38.98359 176.01595 34.12495 174.60942 26.60138 172.07397
640.55487 38.65379 177.53424 34.18360 174.92000 26.50306 171.87520
641.42963 39.85403 176.02699 34.08416 174.85675 26.42959 172.14467
642.30438 38.83539 178.29140 34.21292 174.90355 26.49612 172.33401
643.17920 38.37083 176.98528 34.38645 175.33658 26.51368 173.06898
644.05396 38.82855 177.78362 34.21904 175.33765 26.52344 173.02925
644.92871 38.36946 175.84375 34.36318 175.70508 26.43481 173.26933
645.80347 39.03271 176.47847 34.08269 175.63188 26.54735 173.86044
646.67822 38.82620 176.90819 34.35482 175.95471 26.51707 173.52167
647.55304 38.83894 177.27565 34.25660 176.22867 26.47541 173.76424
648.42780 39.05033 176.86986 33.98236 176.00302 26.53267 174.82019
649.30255 38.60281 178.32138 34.06263 176.20023 26.40144 174.90176
650.17731 38.28514 179.37769 34.14355 176.13847 26.59343 175.23193
651.05206 38.63297 176.84454 34.24898 176.46309 26.44888 175.15562
651.92688 38.91848 176.92599 34.39743 176.84001 26.53113 174.99033
652.80164 38.83344 176.60410 34.20273 177.02771 26.68595 175.58769
653.67639 38.53374 178.74872 34.23362 176.53413 26.67989 176.31462
654.55115 38.33508 177.70712 34.19339 176.66246 26.87243 176.13037
655.42590 39.20477 177.12038 34.17073 177.33009 26.95471 176.71767
656.30066 38.27020 178.22620 34.48848 177.08098 26.62078 176.09312
657.17548 38.25228 178.13908 34.17572 177.35657 26.63824 177.11929
658.05023 39.32361 178.26021 34.18287 177.44872 26.78703 177.50003
658.92499 38.90560 177.38463 34.34825 177.62875 26.64054 177.05693
659.79974 38.70623 177.28777 34.27323 177.82324 26.63877 177.21799
660.67450 38.46576 178.14674 34.49356 177.96548 26.70458 177.89333
661.54932 38.65603 178.35748 34.53883 178.10246 26.71063 178.66330
662.42407 39.22066 177.97934 34.38176 178.20230 26.60735 178.66705
663.29883 38.51249 178.02783 34.41642 178.28064 26.56470 178.23326
664.17358 38.73239 179.50879 34.37247 178.77464 26.75997 179.16879
665.04834 39.48697 179.06763 34.37828 178.86700 27.02841 179.00340
665.92310 38.41584 179.53893 34.51882 178.95494 26.58571 179.08130
666.79791 38.93562 177.57230 34.44644 178.64558 26.76681 179.49834
667.67267 38.55383 180.09770 34.36977 179.31114 26.76853 180.25464
668.54742 39.27873 179.33672 34.39080 179.45930 26.64723 180.15123
669.42218 38.89388 179.36263 34.48049 179.04851 26.71651 180.56477
670.29694 38.67573 178.53247 34.45865 179.12163 26.57261 181.44139
671.17175 38.45099 179.19534 34.49648 179.40681 26.83248 181.23886
672.04651 39.74228 179.44948 34.21327 179.71751 26.90198 181.19255
672.92126 39.13742 178.74982 34.48549 180.09431 26.67668 181.39516
673.79602 39.22871 179.44432 34.45998 180.37964 26.78770 181.46584
674.67078 38.29529 179.15102 34.14615 180.31390 26.80018 182.06802
675.54559 39.17853 178.13631 34.41761 180.58235 26.77701 181.82065
676.42035 38.49292 179.24315 34.31683 180.24298 26.92853 182.92972
677.29510 38.76921 179.38486 34.59364 180.63249 26.78230 181.97098
678.16986 38.26591 179.83810 34.49870 181.36145 26.77283 183.52466
679.04462 38.85255 180.64857 34.37487 180.71153 27.04806 183.59254
679.91937 39.13396 179.79172 34.39172 181.06430 27.11669 183.92467
680.79419 38.63729 180.30281 34.22431 180.98833 26.90028 183.57985
681.66895 38.54160 179.44327 34.15908 182.00426 26.94881 184.51056
682.54370 38.98796 180.11597 34.61028 181.46562 26.74020 184.42635
683.41846 38.76380 178.80893 34.32302 181.15671 26.96831 185.15617
684.29321 39.03239 180.59041 34.39354 181.40047 26.92217 184.74826
685.16803 39.16767 180.58037 34.23643 181.66281 27.24360 185.33607
686.04279 38.63380 181.57123 34.41496 181.62154 26.79517 185.73318
686.91754 38.77776 180.54028 34.41378 181.84540 26.66089 185.21696
687.79230 39.01839 180.77403 34.44854 182.38857 26.60893 185.85335
688.66705 39.03022 181.40218 34.43441 182.27280 26.92582 186.20816
689.54187 39.11669 180.06670 34.43201 182.63663 26.87259 187.16667
690.41663 38.34718 180.30617 34.67609 182.56407 26.66715 186.77010
691.29138 38.13727 180.63757 34.45888 182.83286 26.79473 186.86111
692.16614 38.91329 178.94899 34.46407 183.17413 26.88713 187.43446
693.04089 38.89713 179.16010 34.48317 182.59976 26.87112 187.58330
693.91565 39.15259 181.26630 34.43139 183.31691 26.67177 187.33044
694.79047 38.65045 180.40695 34.47488 182.83504 26.73776 188.23798
695.66522 37.91442 182.84290 34.43053 182.88887 26.60460 187.89549
696.53998 38.94180 180.55458 34.39389 183.72139 26.80949 188.40076
697.42114 38.47543 181.79449 34.30307 184.28618 26.81416 188.61435
698.30237 39.10711 183.18777 34.32822 183.90573 26.63634 189.42747
699.18353 38.13485 180.63855 34.41180 184.19392 26.74596 188.90572
700.06470 38.84174 181.53047 34.33356 183.87390 26.80341 189.22504
700.94592 38.49121 183.05544 34.42754 184.23608 26.87837 189.71300
701.82709 39.22924 181.90779 34.48072 184.31264 26.69361 189.81386
702.70825 38.87122 182.08897 34.15096 184.38458 26.92875 190.21617
703.58948 38.88321 183.57541 34.53956 184.28937 26.57643 190.77147
704.47064 38.27091 181.04347 34.41473 185.01631 26.76565 190.40059
705.35181 38.34756 182.66612 34.47550 184.86673 26.63543 190.75548
706.23303 39.16031 181.18066 34.73814 184.84666 26.81789 190.78641
707.11420 37.99148 182.99716 34.42960 184.97824 26.67494 192.01749
707.99536 38.56331 183.03886 34.17315 184.90463 26.67221 191.11246
708.87659 38.86431 182.19676 34.28085 185.28462 26.60440 191.79889
709.75775 38.66718 182.59090 34.24300 185.23019 26.61304 191.65944
710.63892 39.06248 182.70882 34.32374 185.33885 26.64173 192.92924
711.52014 38.75710 182.76230 34.64632 185.70885 26.75220 192.63774
712.40131 38.20640 182.30106 34.45035 185.46936 26.74421 192.57603
713.28247 39.27104 182.09390 34.30439 186.09068 26.54212 193.85168
714.16370 38.39215 182.05560 34.28114 186.50941 26.95738 193.12997
715.04486 38.09888 183.43712 34.20459 185.98486 26.96338 193.14622
715.92603 37.54205 185.40123 34.37843 186.77933 26.81708 193.64449
716.80725 38.23176 183.37492 34.46022 186.62880 26.80954 194.64845
717.68842 39.65448 183.01941 34.30525 186.42516 26.45689 194.54111
718.56958 39.16833 181.94987 34.39275 187.03085 26.49002 194.19084
719.45081 39.33612 181.03366 34.57507 187.10928 26.65157 194.50978
720.33197 37.42949 181.75928 34.23888 186.93387 26.28311 194.50694
721.21313 38.33307 182.15471 34.30446 187.08435 26.55264 195.02380
722.09436 37.49423 184.28751 34.41815 187.45430 26.62835 195.73218
722.97552 37.96464 183.82845 33.83617 187.05112 26.59684 195.33089
723.85669 38.68984 185.02667 34.05163 186.98743 26.46861 195.91501
724.73792 37.46360 185.37149 34.36721 186.28897 26.66324 195.44922
725.61908 38.74195 180.93161 33.99625 187.63351 26.51611 196.23946
726.50024 38.74570 183.32069 34.08553 186.76257 26.71996 196.59593
727.38147 38.26217 185.26689 34.42918 187.63861 26.49440 196.60092
728.26263 39.10067 185.31306 34.21952 187.66243 26.52951 196.47678
729.14380 38.20621 185.71620 34.18957 187.79462 26.57577 197.44016
730.02502 38.46507 183.41187 34.08790 187.97690 26.77186 197.22240
730.90619 39.00413 184.88702 33.89994 188.40855 26.69681 196.95963
731.78735 38.17133 183.40939 33.96246 188.97702 26.61648 197.98010
732.66852 38.27455 184.62938 33.96445 188.62697 26.39021 198.05521
733.54974 37.79900 183.78960 34.21472 188.98541 26.45099 198.33209
734.43091 38.27238 181.33267 34.05613 188.56526 26.25008 198.02589
735.31207 38.48360 182.57602 33.99747 189.04578 26.32022 198.95801
736.19330 38.01795 183.82521 33.96187 189.48280 26.44991 198.63147
737.07446 38.68534 184.92892 34.19123 189.25006 26.26558 198.92532
737.95563 38.66986 183.75929 34.00664 189.21281 26.41071 199.55811
738.83685 38.60022 183.99557 33.95903 188.94850 26.45146 199.87364
739.71802 38.99998 184.72252 34.17139 189.81766 26.35288 200.50214
740.59918 38.44660 185.57484 34.04733 190.10046 26.49376 199.79692
741.48041 39.04981 184.89166 33.94616 189.89900 26.55146 200.40016
742.36157 38.78306 184.54271 33.63048 190.40013 26.13335 200.07561
743.24274 38.52650 184.42992 33.96749 190.66658 26.34879 200.89554
744.12396 39.63636 184.54279 34.27930 189.56784 26.62433 200.57411
745.00513 37.92366 186.13219 34.18513 190.44249 26.48391 201.20030
745.88629 38.87717 186.93733 34.16178 190.71834 26.40812 201.31189
746.76752 39.26641 186.14168 34.17195 190.38287 26.70658 201.22861
747.64868 38.50146 188.09914 33.89576 191.01552 26.74864 201.67598
748.52985 38.29242 185.22592 34.09195 190.44801 26.36287 202.84866
749.41107 37.71153 184.60678 34.29750 190.66325 26.34157 202.52245
750.29224 39.75563 186.77821 34.25968 190.49863 26.52609 203.32594
751.17340 37.63145 187.40327 34.23946 191.31754 26.30198 202.75772
752.05463 41.51813 185.90022 33.62778 190.97810 26.58598 203.06674
752.93579 37.82620 184.88675 34.21737 191.74785 26.50844 203.09764
753.81696 38.39280 182.89635 34.11370 190.34489 26.25898 202.90762
754.69818 39.42110 187.26674 34.09618 191.68134 26.31560 203.96744
755.57935 38.34420 185.09970 34.32262 192.27075 26.57231 203.62723
756.46051 39.38800 186.75508 34.06374 191.77063 26.28552 204.46274
757.34174 38.00566 185.81143 34.11684 191.17281 26.45855 204.07831
758.22290 38.40031 185.66589 34.09383 191.89885 26.27606 204.46262
759.10406 39.82021 185.38362 33.95732 192.26155 26.22900 204.79054
759.98529 37.25397 189.79073 33.78405 193.16110 26.12617 205.15523
760.86646 38.15833 185.50221 33.94681 192.11227 26.42838 204.37395
761.74762 40.07058 187.76619 34.10017 192.83482 26.56105 205.38704
762.62885 38.58509 188.87845 33.91057 192.72035 26.36727 205.63086
763.51001 38.34041 190.35521 34.01780 192.19588 26.40084 205.52405
764.36749 39.03238 188.18773 33.97004 192.26985 26.08342 206.09128
765.22504 39.26575 184.25020 34.01361 193.50946 26.07551 206.75926
766.08252 37.46684 185.90379 33.38611 193.96384 26.11102 207.69167
766.94000 39.68914 187.68872 33.86716 192.39946 25.90437 206.52069
767.79749 37.90873 185.97697 33.69212 193.58223 26.42331 206.92238
768.65503 37.99935 186.57054 33.89982 194.04897 26.24480 207.67635
769.51251 37.81597 187.08621 33.55332 193.83537 26.13695 205.35017
770.37000 38.37482 189.22751 34.16892 193.82631 26.17316 207.57599
771.22754 36.33298 182.09181 34.10537 194.62590 26.51401 206.72331
772.08502 38.88367 187.42725 33.66148 194.18382 26.35284 208.13274
772.94250 38.45817 187.19119 33.38508 193.83440 25.81468 207.91095
773.79999 37.23439 182.69904 33.65614 194.06509 26.39079 207.22461
774.65753 38.75917 186.89680 34.04052 194.37694 26.35658 208.92751
775.51501 37.40763 183.15903 33.90599 193.94130 26.13404 209.45378
776.37250 37.73172 191.88942 33.48895 194.08896 26.23062 208.72508
777.23004 37.91978 189.97115 33.82287 194.71802 26.24681 208.70488
778.08752 38.68423 187.54251 33.51138 194.98761 26.46343 209.26213
778.94501 40.67948 187.07332 33.30976 195.81148 25.93388 209.06467
779.80249 36.74854 183.53297 33.66122 195.30125 26.26253 209.05356
780.66003 37.15269 188.67181 34.19644 195.19728 26.72679 209.79063
781.51752 37.54344 187.22556 33.45527 195.53743 26.29622 210.55989
782.37500 38.28498 187.68976 33.77756 194.82506 25.98668 209.28932
783.23254 36.96521 188.94504 33.25645 195.45297 26.04531 209.93297
784.09003 37.35492 195.06880 33.74531 195.38339 26.32845 210.29735
784.94751 37.83302 193.80305 33.01286 194.98868 26.13754 209.91895
785.80499 37.74664 190.44666 33.47754 196.18048 26.31568 210.55557
786.66254 36.84124 188.96489 33.43869 195.40552 26.18109 210.71568
787.52002 37.48154 191.64970 33.24337 195.49185 26.09531 210.89615
788.37750 38.90231 193.39291 33.65649 195.75017 25.46534 212.04442
789.23505 36.39426 186.65315 34.07140 195.89374 25.85244 211.22520
790.09253 35.79446 190.37970 33.48796 196.10834 25.81922 211.51527
790.95001 36.26049 189.56050 33.58326 196.41623 26.07263 212.47539
791.80750 38.86611 183.87628 33.54095 196.38992 25.90114 212.31798
792.66504 38.75055 191.52715 33.66406 196.81960 26.20582 211.58745
793.52252 35.58105 187.59352 33.60494 196.94153 26.13208 212.49634
794.38000 40.36707 188.70242 33.31788 197.53279 25.93095 212.40208
795.23755 36.93613 185.94756 33.21012 197.56219 25.87304 212.88654
796.09503 36.81184 189.81534 33.60442 196.70001 26.53699 212.89238
796.95251 36.81389 190.73799 33.22535 197.08752 26.13146 213.48088
797.81000 39.21200 191.86465 33.43716 197.94998 26.23808 213.40099
798.66754 38.24451 190.41869 33.19270 197.35246 25.83610 213.77145
799.52502 38.78891 195.43005 33.01263 198.16560 25.84375 212.88654
;pattern=*****
;lines
;linecolor=000080
;linewidth=1
;marker=0
;markerborder=0
;markercolor=ff
; 
; Stylerecord: No. 1
;Marker[1]=0
;MarkerWidth[1]=0.0
;MarkerBorder[1]=black
;MarkerColor[1]=white
;lines[1]=1
;LineColor[1]=black
;LineWidth[1]=0.0
;Pattern[1]=*****--*--
; Stylerecord: No. 2
;Marker[2]=0
;MarkerWidth[2]=0.0
;MarkerBorder[2]=black
;MarkerColor[2]=white
;lines[2]=1
;LineColor[2]=black
;LineWidth[2]=0.0
;Pattern[2]=**
; Stylerecord: No. 3
;Marker[3]=0
;MarkerWidth[3]=0.0
;MarkerBorder[3]=black
;MarkerColor[3]=white
;lines[3]=1
;LineColor[3]=black
;LineWidth[3]=0.0
;Pattern[3]=*-
; Stylerecord: No. 4
;Marker[4]=0
;MarkerWidth[4]=0.0
;MarkerBorder[4]=black
;MarkerColor[4]=white
;lines[4]=1
;LineColor[4]=black
;LineWidth[4]=0.0
;Pattern[4]=**--
; Stylerecord: No. 5
;Marker[5]=0
;MarkerWidth[5]=0.0
;MarkerBorder[5]=black
;MarkerColor[5]=white
;lines[5]=1
;LineColor[5]=black
;LineWidth[5]=0.0
;Pattern[5]=***-*-
; Stylerecord: No. 6
;Marker[6]=0
;MarkerWidth[6]=0.0
;MarkerBorder[6]=black
;MarkerColor[6]=white
;lines[6]=1
;LineColor[6]=black
;LineWidth[6]=0.0
;Pattern[6]=**-*-
456.34976 30.62527 166.51507 23.06906 154.49912 14.75637 124.42423
464.04092 30.64500 164.59932 23.35644 151.28767 15.76262 120.07912
471.73209 31.00374 162.61708 24.11959 148.31410 17.22845 117.28153
479.42325 31.61052 161.05021 25.16138 146.25378 18.80721 116.23630
487.11441 32.44395 159.94020 26.45140 145.07777 20.50340 116.58775
494.80560 33.43617 159.36017 27.90149 144.78261 22.25794 118.07261
502.49677 34.25372 160.03864 28.98081 146.27785 23.30965 121.39974
510.18793 34.69491 161.91173 29.41984 149.43220 23.34060 126.44765
517.87909 35.11217 163.46762 29.87821 152.09418 23.51294 130.91577
525.57025 35.50019 164.79744 30.33251 154.39132 23.77136 134.89993
533.26141 35.85681 165.95567 30.76923 156.40314 24.07932 138.46693
540.95258 36.18274 166.95521 31.18393 158.14710 24.42090 141.61220
548.70435 36.48612 167.84338 31.58190 159.70126 24.78659 144.44833
556.57721 36.77327 168.66448 31.96743 161.13947 25.16894 147.08989
564.45013 37.04854 169.44390 32.34414 162.50460 25.56539 149.60527
572.32306 37.32494 170.22338 32.72892 163.86909 25.99156 152.12262
580.19592 37.58640 171.01397 33.09579 165.24697 26.40792 154.65003
588.06885 37.80188 171.80533 33.39574 166.61477 26.74205 157.12731
595.94177 37.97204 172.58762 33.62903 167.95838 26.99203 159.53732
603.81464 38.12545 173.35323 33.84039 169.27224 27.22321 161.89192
611.68756 38.26804 174.10469 34.03867 170.56187 27.44739 164.20356
619.56049 38.39451 174.85266 34.21453 171.84431 27.64828 166.49862
627.43335 38.50257 175.60736 34.36357 173.13671 27.81736 168.80678
635.30627 38.59191 176.36223 34.48524 174.42841 27.95364 171.11047
643.17920 38.66276 177.11414 34.57970 175.71451 28.05690 173.40226
651.05206 38.71498 177.86185 34.64645 176.99323 28.12578 175.67988
658.92499 38.74785 178.60500 34.68413 178.26415 28.15760 177.94344
666.79791 38.75877 179.34545 34.68819 179.53050 28.14472 180.19941
674.67078 38.74924 180.07969 34.66098 180.78682 28.09068 182.43980
682.54370 38.72580 180.79916 34.61319 182.01932 28.01218 184.64160
690.41663 38.69150 181.50017 34.54972 183.22189 27.91666 186.79423
698.30237 38.64765 182.18245 34.47257 184.39416 27.80686 188.89698
706.23303 38.59347 182.84844 34.38036 185.54024 27.68039 190.95731
714.16370 38.52757 183.49100 34.27074 186.64785 27.53307 192.95382
722.09436 38.45180 184.10902 34.14665 187.71516 27.36910 194.88343
730.02502 38.37396 184.70663 34.02073 188.74939 27.20803 196.75739
737.95563 38.29863 185.28186 33.90037 189.74696 27.06082 198.56733
745.88629 38.22788 185.83872 33.78889 190.71453 26.93228 200.32327
753.81696 38.16402 186.38231 33.68996 191.66052 26.82794 202.03796
761.74762 38.10812 186.92256 33.60534 192.60168 26.75092 203.73895
769.51251 38.06648 187.45545 33.54520 193.53032 26.71588 205.40748
777.23004 38.03762 187.99349 33.50721 194.46767 26.72008 207.07938
784.94751 38.01377 188.54284 33.47883 195.42436 26.74489 208.77536
792.66504 37.99404 189.11094 33.45875 196.41296 26.78921 210.51590
